File: 02-Raw_data/LFMO/IMS_LMFO_A4.uxd
;content of C:\DATA XRD\IMS_LMFO_220510_A4_137.raw - (Diffrac Plus V4 file)
_FILEVERSION = 3
_SAMPLE = IMS_LMFO_220510_A4_137
_+SAMPLE
_USER = Lab Manager
_GONIOMETER_CODE = 20
_STAGE_CODE = 7
; Goniometer : D8 theta/2theta, stage : Chi drive
_SAMPLE_CHANGER_CODE = 0
_ATTACHMENTS_CODE = 0
_GONIOMETER_RADIUS = 217.5
_FIXED_DIVSLIT = 2
_MONOCHROMATOR = 0
; Incident beam monochromator : None
_SOLLER_SLITS_2 = 2
_BETA_FILTER = N
_ANALYZER_CODE = 0
; Received beam analyzer : None
_DATEMEASURED = 16-May-2022 16:37:35
_RUNTIME = 1816.246
_WL_UNIT = A
_WL1 = 1.5406
_WL2 = 1.54439
_WL3 = 1.39222
_WLRATIO = 0.5
_ANODE = Cu
_V4_INF_USER = Lab Manager
_V4_INF_SAMPLEID = IMS_LMFO_220510_A4_137
_V4_INF_CREATOR = BrmlToV4Converter
_V4_INF_CREATOR_VERSION = 7.5.0.0

; Data for range 1
_DRIVE = COUPLED
_STEPTIME = 86.4
_STEPSIZE = 0.01973
_STEPMODE = C
_START = 5
_THETA = 2.5
_2THETA = 5
_PHI = 60.5078
_DETECTORSLIT = out
_TIMESTARTED = 0
_ROTATION_SPEED = 15
_KV = 40
_MA = 40
_RANGE_WL = 1.5406
_3DPLANE = 0
_V4_PSD2THETA = 9999
_V4_PSDCHANNEL1 = 0
_V4_PSDAPERTURE = 3.788144
_V4_PSDTYPE = 5
_V4_PSDFIXED = 0
_V4_COUNTERS_MASK = 1
_V4_DRIVES_MASK = 0
_V4_ENCODERS_MASK = 0
_COUNTS = 1
; Cnt2_D1
340
329
279
284
280
239
218
213
180
176
185
162
169
156
124
131
124
114
116
78
99
103
83
83
76
71
80
72
79
70
69
74
70
52
57
65
50
51
53
56
49
39
57
49
41
48
49
28
48
46
36
66
125
5588
191
73
39
40
42
42
34
51
29
22
43
29
31
26
20
31
27
22
28
20
24
29
25
28
26
27
30
27
16
25
23
25
25
28
17
21
20
31
28
17
28
27
29
41
40
38
46
22
24
36
18
26
24
26
30
32
28
25
45
28
39
54
65
64
67
98
242
733
113
31
34
39
57
471
71
25
24
18
21
24
18
20
25
29
15
22
16
37
27
33
27
29
21
34
35
59
144
938
204
58
37
42
32
22
20
24
29
13
21
24
28
30
33
192
68
28
24
25
21
12
22
11
23
16
18
27
22
22
25
13
15
15
22
26
18
24
13
16
15
21
22
23
19
18
18
24
21
32
32
31
40
126
313
83
34
23
17
14
21
19
18
14
16
8.000000
26
25
36
42
47
49
61
58
64
138
486
178
54
25
26
31
13
20
19
17
18
35
159
125
58
29
22
16
22
10
14
17
11
16
14
14
13
19
13
14
19
15
13
16
12
25
16
20
12
24
18
26
26
26
22
115
63
37
31
128
59
35
22
14
12
16
17
13
18
23
18
18
18
17
26
103