File: 02-Raw_data/LFMO/IMS_LMFO_B4.uxd
;content of C:\DATA XRD\IMS_LMFO_220510_B4_140.raw - (Diffrac Plus V4 file)
_FILEVERSION = 3
_SAMPLE = IMS_LMFO_220510_B4_140
_+SAMPLE
_USER = Lab Manager
_GONIOMETER_CODE = 20
_STAGE_CODE = 7
; Goniometer : D8 theta/2theta, stage : Chi drive
_SAMPLE_CHANGER_CODE = 0
_ATTACHMENTS_CODE = 0
_GONIOMETER_RADIUS = 217.5
_FIXED_DIVSLIT = 2
_MONOCHROMATOR = 0
; Incident beam monochromator : None
_SOLLER_SLITS_2 = 2
_BETA_FILTER = N
_ANALYZER_CODE = 0
; Received beam analyzer : None
_DATEMEASURED = 17-May-2022 08:28:03
_RUNTIME = 1825.401
_WL_UNIT = A
_WL1 = 1.5406
_WL2 = 1.54439
_WL3 = 1.39222
_WLRATIO = 0.5
_ANODE = Cu
_V4_INF_USER = Lab Manager
_V4_INF_SAMPLEID = IMS_LMFO_220510_B4_140
_V4_INF_CREATOR = BrmlToV4Converter
_V4_INF_CREATOR_VERSION = 7.5.0.0

; Data for range 1
_DRIVE = COUPLED
_STEPTIME = 86.4
_STEPSIZE = 0.01973
_STEPMODE = C
_START = 5
_THETA = 2.5
_2THETA = 5
_PHI = 179.609
_DETECTORSLIT = out
_TIMESTARTED = 0
_ROTATION_SPEED = 15
_KV = 40
_MA = 40
_RANGE_WL = 1.5406
_3DPLANE = 0
_V4_PSD2THETA = 9999
_V4_PSDCHANNEL1 = 0
_V4_PSDAPERTURE = 3.788144
_V4_PSDTYPE = 5
_V4_PSDFIXED = 0
_V4_COUNTERS_MASK = 1
_V4_DRIVES_MASK = 0
_V4_ENCODERS_MASK = 0
_COUNTS = 1
; Cnt2_D1
304
291
266
271
239
232
199
213
201
209
188
151
185
145
153
149
123
128
120
115
113
107
100
104
91
96
89
79
77
76
83
84
74
71
67
68
64
69
51
57
76
56
53
64
50
47
64
54
50
53
54
73
158
4362
67
52
56
53
44
47
45
34
35
40
39
38
32
39
36
38
36
33
25
36
36
29
41
33
30
32
32
25
42
30
31
46
35
50
38
58
36
39
37
54
45
51
39
35
50
62
52
52
47
47
53
45
46
53
43
34
43
46
43
43
49
52
50
43
63
67
184
443
47
38
45
42
73
651
59
33
47
37
41
30
34
39
47
43
37
29
41
42
43
51
45
46
41
58
57
79
122
1088
79
36
47
39
37
43
31
33
34
35
34
40
30
43
51
318
43
36
32
27
20
30
27
22
22
25
31
30
32
29
28
21
28
35
29
32
26
16
43
24
41
30
30
23
31
34
31
28
39
33
32
39
64
120
366
55
24
38
32
35
31
26
33
30
26
32
20
30
23
25
19
25
31
51
71
96
769
70
35
41
39
31
26
20
26
27
27
37
144
148
39
33
30
21
17
32
20
21
23
22
28
22
27
15
20
16
25
32
26
29
19
18
35
25
20
29
25
28
17
25
34
167
49
40
40
198
53
30
22
20
16
21
22
26
35
24
30
23
22
19
48
167