File: 02-Raw_data/LFMO/IMS_LMFO_C3.uxd
;content of C:\DATA XRD\IMS_LMFO_324.raw - (Diffrac Plus V4 file)
_FILEVERSION = 3
_SAMPLE = IMS_LMFO_323
_+SAMPLE
_USER = Lab Manager
_GONIOMETER_CODE = 20
_STAGE_CODE = 7
; Goniometer : D8 theta/2theta, stage : Chi drive
_SAMPLE_CHANGER_CODE = 0
_ATTACHMENTS_CODE = 0
_GONIOMETER_RADIUS = 217.5
_FIXED_DIVSLIT = 2
_MONOCHROMATOR = 0
; Incident beam monochromator : None
_SOLLER_SLITS_2 = 2
_BETA_FILTER = N
_ANALYZER_CODE = 0
; Received beam analyzer : None
_DATEMEASURED = 21-Jul-2022 16:59:25
_RUNTIME = 1821.183
_WL_UNIT = A
_WL1 = 1.5406
_WL2 = 1.54439
_WL3 = 1.39222
_WLRATIO = 0.5
_ANODE = Cu
_V4_INF_USER = Lab Manager
_V4_INF_SAMPLEID = IMS_LMFO_323
_V4_INF_CREATOR = BrmlToV4Converter
_V4_INF_CREATOR_VERSION = 7.5.0.0

; Data for range 1
_DRIVE = COUPLED
_STEPTIME = 92.544
_STEPSIZE = 0.01973
_STEPMODE = C
_START = 10
_THETA = 5
_2THETA = 10
_PHI = 37.9922
_DETECTORSLIT = out
_TIMESTARTED = 0
_ROTATION_SPEED = 15
_KV = 40
_MA = 40
_RANGE_WL = 1.5406
_3DPLANE = 0
_V4_PSD2THETA = 9999
_V4_PSDCHANNEL1 = 0
_V4_PSDAPERTURE = 3.788144
_V4_PSDTYPE = 5
_V4_PSDFIXED = 0
_V4_COUNTERS_MASK = 1
_V4_DRIVES_MASK = 0
_V4_ENCODERS_MASK = 0
_COUNTS = 1
; Cnt2_D1
83
82
94
74
87
69
79
85
68
65
66
59
68
66
50
56
60
65
50
59
42
42
35
55
44
31
45
39
45
47
35
31
34
42
65
138
232
2097
54
33
39
35
34
26
25
20
34
22
19
25
21
36
27
19
25
18
19
22
21
26
18
26
20
18
28
18
24
16
26
23
21
21
23
19
26
19
21
24
21
16
17
20
16
20
14
18
27
62
21
18
17
16
17
13
10
8.000000
16
13
10
16
13
14
10
20
18
15
15
30
97
190
1835
74
19
11
25
32
52
352
21
19
11
9.000000
14
11
10
14
7.000000
10
13
9.000000
9.000000
13
6.000000
6.000000
19
9.000000
10
10
17
9.000000
29
108
214
1290
47
17
12
10
9.000000
14
7.000000
13
8.000000
13
6.000000
11
10
10
23
32
160
26
10
13
12
2.000000
16
11
12
7.000000
13
15
11
11
12
11
11
14
12
4.000000
13
6.000000
7.000000
7.000000
10
22
13
24
19
13
11
12
7.000000
4.000000
5.000000
12
15
10
12
19
43
79
495
75
15
13
9.000000
5.000000
13
8.000000
12
11
11
14
11
12
12
7.000000
11
16
15
15
20
20
54
131
881
112
24
23
13
12
10
11
14
17
8.000000
7.000000
33
65
384
25
19
11
12
10
8.000000
7.000000
6.000000
9.000000
15
8.000000
8.000000
12
8.000000
7.000000
7.000000
10
6.000000
16
12
12
9.000000
6.000000
10
4.000000
9.000000
4.000000
13
3.000000
9.000000
9.000000
11
17
31
98
37
4.000000
27
74
117
14
13
11
9.000000
8.000000
7.000000
8.000000
11
12
9.000000
11
7.000000
9.000000
16
28
41