File: 02-Raw_data/LFMO/IMS_LMFO_B2.uxd
;content of C:\DATA XRD\IMS_LMFO_220510_B2_139.raw - (Diffrac Plus V4 file)
_FILEVERSION = 3
_SAMPLE = IMS_LMFO_220510_B2_139
_+SAMPLE
_USER = Lab Manager
_GONIOMETER_CODE = 20
_STAGE_CODE = 7
; Goniometer : D8 theta/2theta, stage : Chi drive
_SAMPLE_CHANGER_CODE = 0
_ATTACHMENTS_CODE = 0
_GONIOMETER_RADIUS = 217.5
_FIXED_DIVSLIT = 2
_MONOCHROMATOR = 0
; Incident beam monochromator : None
_SOLLER_SLITS_2 = 2
_BETA_FILTER = N
_ANALYZER_CODE = 0
; Received beam analyzer : None
_DATEMEASURED = 16-May-2022 17:40:12
_RUNTIME = 1816.495
_WL_UNIT = A
_WL1 = 1.5406
_WL2 = 1.54439
_WL3 = 1.39222
_WLRATIO = 0.5
_ANODE = Cu
_V4_INF_USER = Lab Manager
_V4_INF_SAMPLEID = IMS_LMFO_220510_B2_139
_V4_INF_CREATOR = BrmlToV4Converter
_V4_INF_CREATOR_VERSION = 7.5.0.0

; Data for range 1
_DRIVE = COUPLED
_STEPTIME = 86.4
_STEPSIZE = 0.01973
_STEPMODE = C
_START = 5
_THETA = 2.5
_2THETA = 5
_PHI = 87.8047
_DETECTORSLIT = out
_TIMESTARTED = 0
_ROTATION_SPEED = 15
_KV = 40
_MA = 40
_RANGE_WL = 1.5406
_3DPLANE = 0
_V4_PSD2THETA = 9999
_V4_PSDCHANNEL1 = 0
_V4_PSDAPERTURE = 3.788144
_V4_PSDTYPE = 5
_V4_PSDFIXED = 0
_V4_COUNTERS_MASK = 1
_V4_DRIVES_MASK = 0
_V4_ENCODERS_MASK = 0
_COUNTS = 1
; Cnt2_D1
337
314
307
280
287
242
255
264
173
185
171
182
159
140
122
106
107
117
118
97
96
106
63
83
74
86
83
93
83
70
56
53
55
56
65
67
61
69
66
58
54
49
46
52
46
48
55
54
32
52
42
65
101
6960
153
48
44
37
46
39
39
38
33
39
36
33
28
28
32
24
30
29
40
31
28
25
33
30
30
15
23
30
23
29
25
18
21
24
39
27
32
29
23
37
45
29
33
38
43
41
39
41
27
25
26
25
26
36
37
36
30
29
30
46
29
43
37
36
66
81
140
599
62
44
30
45
37
667
44
32
25
25
25
26
26
29
34
22
29
38
24
29
27
30
31
24
46
38
50
55
91
887
118
40
35
34
23
27
30
28
35
23
23
32
36
27
32
293
48
33
25
28
13
14
27
25
19
19
24
24
12
27
19
15
24
18
13
13
25
28
18
26
26
25
24
17
23
18
26
30
28
25
17
34
36
84
231
67
28
27
17
24
18
21
11
23
18
20
13
24
19
30
41
38
34
45
68
84
504
111
37
32
38
29
31
19
27
20
29
32
105
107
41
34
26
17
20
19
16
15
21
15
19
18
22
18
19
19
17
18
15
36
22
24
18
29
22
15
19
25
30
24
30
193
47
35
25
228
52
26
27
22
13
14
20
17
17
14
22
17
19
27
31
208