File: 02-Raw_data/LFMO/IMS_LMFO_C4.uxd
;content of C:\DATA XRD\IMS_LMFO_327.raw - (Diffrac Plus V4 file)
_FILEVERSION = 3
_SAMPLE = IMS_LMFO_327
_+SAMPLE
_USER = Lab Manager
_GONIOMETER_CODE = 20
_STAGE_CODE = 7
; Goniometer : D8 theta/2theta, stage : Chi drive
_SAMPLE_CHANGER_CODE = 0
_ATTACHMENTS_CODE = 0
_GONIOMETER_RADIUS = 217.5
_FIXED_DIVSLIT = 2
_MONOCHROMATOR = 0
; Incident beam monochromator : None
_SOLLER_SLITS_2 = 2
_BETA_FILTER = N
_ANALYZER_CODE = 0
; Received beam analyzer : None
_DATEMEASURED = 22-Jul-2022 05:14:08
_RUNTIME = 1821.662
_WL_UNIT = A
_WL1 = 1.5406
_WL2 = 1.54439
_WL3 = 1.39222
_WLRATIO = 0.5
_ANODE = Cu
_V4_INF_USER = Lab Manager
_V4_INF_SAMPLEID = IMS_LMFO_327
_V4_INF_CREATOR = BrmlToV4Converter
_V4_INF_CREATOR_VERSION = 7.5.0.0

; Data for range 1
_DRIVE = COUPLED
_STEPTIME = 92.544
_STEPSIZE = 0.01973
_STEPMODE = C
_START = 10
_THETA = 5
_2THETA = 10
_PHI = 55.9922
_DETECTORSLIT = out
_TIMESTARTED = 0
_ROTATION_SPEED = 15
_KV = 40
_MA = 40
_RANGE_WL = 1.5406
_3DPLANE = 0
_V4_PSD2THETA = 9999
_V4_PSDCHANNEL1 = 0
_V4_PSDAPERTURE = 3.788144
_V4_PSDTYPE = 5
_V4_PSDFIXED = 0
_V4_COUNTERS_MASK = 1
_V4_DRIVES_MASK = 0
_V4_ENCODERS_MASK = 0
_COUNTS = 1
; Cnt2_D1
82
75
100
73
75
67
70
56
70
77
70
62
66
67
61
54
51
48
56
43
39
45
46
41
38
52
34
41
46
45
36
41
42
36
59
72
266
565
45
49
40
34
40
44
25
30
35
30
33
36
25
30
27
31
34
26
24
21
26
18
17
18
27
15
15
24
24
15
18
16
27
19
12
25
20
14
17
16
25
21
22
23
21
20
20
23
22
176
30
13
26
14
16
18
15
14
19
15
17
11
19
14
20
17
17
26
18
22
56
97
4321
49
21
20
17
13
31
675
23
14
15
13
11
16
17
8.000000
9.000000
17
12
15
13
12
9.000000
13
16
11
13
13
15
17
23
60
190
554
41
23
21
17
12
20
9.000000
18
20
10
13
15
12
10
20
19
435
29
13
11
19
13
21
10
13
10
11
10
8.000000
15
10
7.000000
12
12
14
9.000000
13
16
11
12
14
13
20
38
14
7.000000
6.000000
12
9.000000
12
13
11
10
21
13
16
26
55
1263
72
22
15
12
19
9.000000
12
8.000000
16
6.000000
12
14
12
11
14
13
10
12
18
16
24
33
69
1868
108
24
26
13
13
14
11
11
12
8.000000
14
17
43
481
27
18
15
13
17
11
12
13
9.000000
6.000000
4.000000
11
12
9.000000
6.000000
8.000000
9.000000
6.000000
11
12
7.000000
12
16
9.000000
8.000000
15
12
7.000000
8.000000
11
20
8.000000
11
20
168
22
13
24
79
76
15
11
14
14
8.000000
5.000000
10
13
10
8.000000
6.000000
10
12
12
26
31