File: 02-Raw_data/LFMO/IMS_LMFO_A2.uxd
;content of C:\DATA XRD\IMS_LMFO_220510_C4_144.raw - (Diffrac Plus V4 file)
_FILEVERSION = 3
_SAMPLE = IMS_LMFO_220510_C4_144
_+SAMPLE
_USER = Lab Manager
_GONIOMETER_CODE = 20
_STAGE_CODE = 7
; Goniometer : D8 theta/2theta, stage : Chi drive
_SAMPLE_CHANGER_CODE = 0
_ATTACHMENTS_CODE = 0
_GONIOMETER_RADIUS = 217.5
_FIXED_DIVSLIT = 2
_MONOCHROMATOR = 0
; Incident beam monochromator : None
_SOLLER_SLITS_2 = 2
_BETA_FILTER = N
_ANALYZER_CODE = 0
; Received beam analyzer : None
_DATEMEASURED = 17-May-2022 10:33:12
_RUNTIME = 1816.651
_WL_UNIT = A
_WL1 = 1.5406
_WL2 = 1.54439
_WL3 = 1.39222
_WLRATIO = 0.5
_ANODE = Cu
_V4_INF_USER = Lab Manager
_V4_INF_SAMPLEID = IMS_LMFO_220510_C4_144
_V4_INF_CREATOR = BrmlToV4Converter
_V4_INF_CREATOR_VERSION = 7.5.0.0

; Data for range 1
_DRIVE = COUPLED
_STEPTIME = 86.4
_STEPSIZE = 0.01973
_STEPMODE = C
_START = 5
_THETA = 2.5
_2THETA = 5
_PHI = 101.109
_DETECTORSLIT = out
_TIMESTARTED = 0
_ROTATION_SPEED = 15
_KV = 40
_MA = 40
_RANGE_WL = 1.5406
_3DPLANE = 0
_V4_PSD2THETA = 9999
_V4_PSDCHANNEL1 = 0
_V4_PSDAPERTURE = 3.788144
_V4_PSDTYPE = 5
_V4_PSDFIXED = 0
_V4_COUNTERS_MASK = 1
_V4_DRIVES_MASK = 0
_V4_ENCODERS_MASK = 0
_COUNTS = 1
; Cnt2_D1
341
328
331
248
261
260
231
216
217
216
197
207
171
180
162
149
131
141
136
124
131
96
101
117
100
96
84
85
97
83
83
77
76
87
89
82
64
66
66
73
49
56
70
63
50
42
61
60
60
50
59
83
140
1843
96
58
41
37
42
39
38
34
31
48
33
34
27
27
24
28
37
32
24
35
36
27
35
31
22
28
24
16
35
27
38
23
23
30
34
33
27
24
44
28
32
37
36
49
38
79
40
34
31
31
32
31
21
38
35
31
34
29
30
35
37
41
46
53
84
86
418
241
56
41
34
47
44
360
45
23
25
21
21
17
25
29
25
17
23
32
26
31
38
35
26
45
33
42
50
70
207
556
92
46
30
33
23
15
23
31
18
28
25
27
31
40
29
155
43
23
23
24
29
16
28
23
27
21
28
23
26
27
13
18
20
21
17
31
10
28
33
25
28
30
17
22
15
27
26
23
20
21
32
36
41
315
208
44
27
23
33
19
22
19
21
21
25
13
19
21
36
32
29
33
46
53
50
264
427
87
30
29
15
31
27
20
30
31
36
34
293
86
38
36
30
18
13
23
13
24
23
18
20
19
21
18
26
21
16
24
20
18
14
16
18
12
17
19
17
12
23
23
19
132
28
25
27
143
44
30
16
18
24
14
20
20
16
17
9.000000
27
18
23
78
177